File: data/14_05/.ipynb_checkpoints/File_250514_183332-checkpoint.txt
'File_250514_183332 - Storage 183332'
'Wavelength nm.' 'Abs.'
350.00 0.257033
352.00 0.255566
354.00 0.253999
356.00 0.252435
358.00 0.250711
360.00 0.249123
362.00 0.247408
364.00 0.245930
366.00 0.244622
368.00 0.243161
370.00 0.241618
372.00 0.240389
374.00 0.238628
376.00 0.237569
378.00 0.236611
380.00 0.235297
382.00 0.234027
384.00 0.233178
386.00 0.231859
388.00 0.230797
390.00 0.229865
392.00 0.228679
394.00 0.227574
396.00 0.226669
398.00 0.225643
400.00 0.224846
402.00 0.224036
404.00 0.222961
406.00 0.222152
408.00 0.221335
410.00 0.220578
412.00 0.219884
414.00 0.219335
416.00 0.218636
418.00 0.218009
420.00 0.217542
422.00 0.216948
424.00 0.216475
426.00 0.216061
428.00 0.215556
430.00 0.215206
432.00 0.214925
434.00 0.214695
436.00 0.214375
438.00 0.214082
440.00 0.213996
442.00 0.213829
444.00 0.213627
446.00 0.213696
448.00 0.213791
450.00 0.213646
452.00 0.213853
454.00 0.213853
456.00 0.213999
458.00 0.214199
460.00 0.214159
462.00 0.214524
464.00 0.214728
466.00 0.214956
468.00 0.214890
470.00 0.215004
472.00 0.215001
474.00 0.215107
476.00 0.215211
478.00 0.215335
480.00 0.215539
482.00 0.215758
484.00 0.215864
486.00 0.215831
488.00 0.215818
490.00 0.215721
492.00 0.215657
494.00 0.215654
496.00 0.215474
498.00 0.215535
500.00 0.215267
502.00 0.215214
504.00 0.215050
506.00 0.214965
508.00 0.214790
510.00 0.214690
512.00 0.214399
514.00 0.214086
516.00 0.213900
518.00 0.213658
520.00 0.213298
522.00 0.212862
524.00 0.212591
526.00 0.212003
528.00 0.211623
530.00 0.211188
532.00 0.210446
534.00 0.209743
536.00 0.209233
538.00 0.208348
540.00 0.207793
542.00 0.206774
544.00 0.206078
546.00 0.205370
548.00 0.204582
550.00 0.203761
552.00 0.202796
554.00 0.202058
556.00 0.201107
558.00 0.200160
560.00 0.199123
562.00 0.198058
564.00 0.196846
566.00 0.195677
568.00 0.194695
570.00 0.193512
572.00 0.192447
574.00 0.191472
576.00 0.190336
578.00 0.189247
580.00 0.188231
582.00 0.187257
584.00 0.186018
586.00 0.184698
588.00 0.183246
590.00 0.181879
592.00 0.180689
594.00 0.179374
596.00 0.178149
598.00 0.176743
600.00 0.175515
602.00 0.174128
604.00 0.172695
606.00 0.171284
608.00 0.169851
610.00 0.168387
612.00 0.167085
614.00 0.165460
616.00 0.164027
618.00 0.162734
620.00 0.161271
622.00 0.159860
624.00 0.158453
626.00 0.157370
628.00 0.155939
630.00 0.154425
632.00 0.153013
634.00 0.151774
636.00 0.150343
638.00 0.148946
640.00 0.147531
642.00 0.146083
644.00 0.144782
646.00 0.143591
648.00 0.142312
650.00 0.141092
652.00 0.139723
654.00 0.138614
656.00 0.137399
658.00 0.135915
660.00 0.134797
662.00 0.133680
664.00 0.132729
666.00 0.131621
668.00 0.130199
670.00 0.129271
672.00 0.128050
674.00 0.126835
676.00 0.125969
678.00 0.124943
680.00 0.123679
682.00 0.122702
684.00 0.121765
686.00 0.120686
688.00 0.119655
690.00 0.118674
692.00 0.117627
694.00 0.116703
696.00 0.115858
698.00 0.115090
700.00 0.114246
702.00 0.113310
704.00 0.112604
706.00 0.111979
708.00 0.111282
710.00 0.110573
712.00 0.109934
714.00 0.109317
716.00 0.109067
718.00 0.108715
720.00 0.108332
722.00 0.107643
724.00 0.107428
726.00 0.107033
728.00 0.107139
730.00 0.107189
732.00 0.107527
734.00 0.107780
736.00 0.107888
738.00 0.107722
740.00 0.107238
742.00 0.106880
744.00 0.105909
746.00 0.105545
748.00 0.104807
750.00 0.104460
752.00 0.103924
754.00 0.103341
756.00 0.102923
758.00 0.102411
760.00 0.102184
762.00 0.101716
764.00 0.100926
766.00 0.100470
768.00 0.099645
770.00 0.099159
772.00 0.098351
774.00 0.097923
776.00 0.097358
778.00 0.097457
780.00 0.097410
782.00 0.096802
784.00 0.095931
786.00 0.095562
788.00 0.094498
790.00 0.094050
792.00 0.093296
794.00 0.092675
796.00 0.092257
798.00 0.091628
800.00 0.091036