File: data/14_05/.ipynb_checkpoints/X-checkpoint.txt
'File_250514_172242 - Storage 172242'
'Wavelength nm.' 'Abs.'
350.00 0.132471
352.00 0.131976
354.00 0.131008
356.00 0.130418
358.00 0.129676
360.00 0.128981
362.00 0.128401
364.00 0.127604
366.00 0.127152
368.00 0.126410
370.00 0.125660
372.00 0.125143
374.00 0.123981
376.00 0.123419
378.00 0.122741
380.00 0.121944
382.00 0.121306
384.00 0.120871
386.00 0.120202
388.00 0.119550
390.00 0.118956
392.00 0.118386
394.00 0.117764
396.00 0.117097
398.00 0.116592
400.00 0.116032
402.00 0.115477
404.00 0.114689
406.00 0.114129
408.00 0.113702
410.00 0.113209
412.00 0.112495
414.00 0.112149
416.00 0.111605
418.00 0.110989
420.00 0.110725
422.00 0.110160
424.00 0.109766
426.00 0.109340
428.00 0.108874
430.00 0.108550
432.00 0.108178
434.00 0.107899
436.00 0.107551
438.00 0.107058
440.00 0.106852
442.00 0.106590
444.00 0.106305
446.00 0.106141
448.00 0.106002
450.00 0.105784
452.00 0.105678
454.00 0.105478
456.00 0.105483
458.00 0.105376
460.00 0.105128
462.00 0.105216
464.00 0.105174
466.00 0.105121
468.00 0.105108
470.00 0.104985
472.00 0.104938
474.00 0.105074
476.00 0.105079
478.00 0.105039
480.00 0.104957
482.00 0.104888
484.00 0.104988
486.00 0.105006
488.00 0.104915
490.00 0.104852
492.00 0.104690
494.00 0.104760
496.00 0.104743
498.00 0.104785
500.00 0.104745
502.00 0.104645
504.00 0.104569
506.00 0.104639
508.00 0.104663
510.00 0.104592
512.00 0.104560
514.00 0.104376
516.00 0.104480
518.00 0.104499
520.00 0.104387
522.00 0.104372
524.00 0.104311
526.00 0.104115
528.00 0.104239
530.00 0.104303
532.00 0.104265
534.00 0.104252
536.00 0.104244
538.00 0.104075
540.00 0.104116
542.00 0.103914
544.00 0.103912
546.00 0.103858
548.00 0.103746
550.00 0.103684
552.00 0.103654
554.00 0.103718
556.00 0.103587
558.00 0.103429
560.00 0.103354
562.00 0.103306
564.00 0.103160
566.00 0.103123
568.00 0.102979
570.00 0.103036
572.00 0.102834
574.00 0.102780
576.00 0.102699
578.00 0.102427
580.00 0.102358
582.00 0.102238
584.00 0.102001
586.00 0.101818
588.00 0.101908
590.00 0.101728
592.00 0.101676
594.00 0.101413
596.00 0.101497
598.00 0.101428
600.00 0.101188
602.00 0.101044
604.00 0.100849
606.00 0.100605
608.00 0.100382
610.00 0.100166
612.00 0.099945
614.00 0.099531
616.00 0.099269
618.00 0.099145
620.00 0.098831
622.00 0.098497
624.00 0.098331
626.00 0.098335
628.00 0.098095
630.00 0.097725
632.00 0.097509
634.00 0.097233
636.00 0.097079
638.00 0.096735
640.00 0.096441
642.00 0.096257
644.00 0.095956
646.00 0.095707
648.00 0.095580
650.00 0.095189
652.00 0.094940
654.00 0.094845
656.00 0.094688
658.00 0.094347
660.00 0.094130
662.00 0.094162
664.00 0.094268
666.00 0.094121
668.00 0.093787
670.00 0.093790
672.00 0.093468
674.00 0.093248
676.00 0.093112
678.00 0.093003
680.00 0.092743
682.00 0.092589
684.00 0.092564
686.00 0.092167
688.00 0.091903
690.00 0.091600
692.00 0.091533
694.00 0.091360
696.00 0.091286
698.00 0.090966
700.00 0.091057
702.00 0.090932
704.00 0.090787
706.00 0.090808
708.00 0.090633
710.00 0.090719
712.00 0.090820
714.00 0.090796
716.00 0.090939
718.00 0.091194
720.00 0.091388
722.00 0.091400
724.00 0.091825
726.00 0.091989
728.00 0.092487
730.00 0.093034
732.00 0.093831
734.00 0.094550
736.00 0.095163
738.00 0.095626
740.00 0.095542
742.00 0.095390
744.00 0.095224
746.00 0.095063
748.00 0.095020
750.00 0.094815
752.00 0.094403
754.00 0.094200
756.00 0.094151
758.00 0.093780
760.00 0.093791
762.00 0.093546
764.00 0.093009
766.00 0.093042
768.00 0.092909
770.00 0.092497
772.00 0.092316
774.00 0.091825
776.00 0.091689
778.00 0.091232
780.00 0.090943
782.00 0.090640
784.00 0.090150
786.00 0.090105
788.00 0.089362
790.00 0.089233
792.00 0.088738
794.00 0.088355
796.00 0.087922
798.00 0.087408
800.00 0.087017