File: data/14_05/B.txt
'B - Storage 180652'
'Wavelength nm.' 'Abs.'
350.00 0.634882
352.00 0.633636
354.00 0.632029
356.00 0.629882
358.00 0.628321
360.00 0.626451
362.00 0.623567
364.00 0.621418
366.00 0.619687
368.00 0.617079
370.00 0.614630
372.00 0.613078
374.00 0.609992
376.00 0.607831
378.00 0.605681
380.00 0.603658
382.00 0.601282
384.00 0.599659
386.00 0.597366
388.00 0.595027
390.00 0.593045
392.00 0.590581
394.00 0.588558
396.00 0.586336
398.00 0.584123
400.00 0.581881
402.00 0.579953
404.00 0.577244
406.00 0.575012
408.00 0.572920
410.00 0.570607
412.00 0.568226
414.00 0.566155
416.00 0.563734
418.00 0.561183
420.00 0.559108
422.00 0.556633
424.00 0.554219
426.00 0.551887
428.00 0.549685
430.00 0.547186
432.00 0.544847
434.00 0.542783
436.00 0.540547
438.00 0.538185
440.00 0.535691
442.00 0.533343
444.00 0.531330
446.00 0.529235
448.00 0.527395
450.00 0.524888
452.00 0.523071
454.00 0.521072
456.00 0.519404
458.00 0.517309
460.00 0.515303
462.00 0.513457
464.00 0.511694
466.00 0.509905
468.00 0.507973
470.00 0.505987
472.00 0.503850
474.00 0.501570
476.00 0.499704
478.00 0.497826
480.00 0.495654
482.00 0.493456
484.00 0.490929
486.00 0.488737
488.00 0.486773
490.00 0.484689
492.00 0.482624
494.00 0.480777
496.00 0.478585
498.00 0.476891
500.00 0.474716
502.00 0.472796
504.00 0.470910
506.00 0.469155
508.00 0.467189
510.00 0.465525
512.00 0.463566
514.00 0.461320
516.00 0.459583
518.00 0.457596
520.00 0.455999
522.00 0.453973
524.00 0.452158
526.00 0.450382
528.00 0.448557
530.00 0.446679
532.00 0.444262
534.00 0.442039
536.00 0.440024
538.00 0.437674
540.00 0.435533
542.00 0.433518
544.00 0.431582
546.00 0.429648
548.00 0.427710
550.00 0.425554
552.00 0.423741
554.00 0.422009
556.00 0.419925
558.00 0.418133
560.00 0.416043
562.00 0.414459
564.00 0.412483
566.00 0.411005
568.00 0.409303
570.00 0.407600
572.00 0.405933
574.00 0.404547
576.00 0.402756
578.00 0.400772
580.00 0.398880
582.00 0.396579
584.00 0.394084
586.00 0.392007
588.00 0.390116
590.00 0.388135
592.00 0.386932
594.00 0.385166
596.00 0.383673
598.00 0.381741
600.00 0.379962
602.00 0.378309
604.00 0.376500
606.00 0.374788
608.00 0.373059
610.00 0.371190
612.00 0.369463
614.00 0.367548
616.00 0.365717
618.00 0.364031
620.00 0.362158
622.00 0.360617
624.00 0.358795
626.00 0.357815
628.00 0.356157
630.00 0.354456
632.00 0.352735
634.00 0.350961
636.00 0.349347
638.00 0.347584
640.00 0.346105
642.00 0.344522
644.00 0.342790
646.00 0.341382
648.00 0.339976
650.00 0.338575
652.00 0.336934
654.00 0.335532
656.00 0.334179
658.00 0.332420
660.00 0.331098
662.00 0.330031
664.00 0.328868
666.00 0.327055
668.00 0.325302
670.00 0.324334
672.00 0.322686
674.00 0.321501
676.00 0.320462
678.00 0.319226
680.00 0.317701
682.00 0.316281
684.00 0.315474
686.00 0.313955
688.00 0.312683
690.00 0.311378
692.00 0.310246
694.00 0.309099
696.00 0.307975
698.00 0.306839
700.00 0.305816
702.00 0.304731
704.00 0.303567
706.00 0.302604
708.00 0.301702
710.00 0.300569
712.00 0.299621
714.00 0.298935
716.00 0.298214
718.00 0.297569
720.00 0.297058
722.00 0.296171
724.00 0.295454
726.00 0.294624
728.00 0.294168
730.00 0.293762
732.00 0.293789
734.00 0.293367
736.00 0.293049
738.00 0.292676
740.00 0.291995
742.00 0.291025
744.00 0.289975
746.00 0.289081
748.00 0.288189
750.00 0.287290
752.00 0.286289
754.00 0.285418
756.00 0.284468
758.00 0.283528
760.00 0.282629
762.00 0.281503
764.00 0.280138
766.00 0.279685
768.00 0.278481
770.00 0.277383
772.00 0.276682
774.00 0.275656
776.00 0.274892
778.00 0.274300
780.00 0.273359
782.00 0.271779
784.00 0.270853
786.00 0.270671
788.00 0.269949
790.00 0.268826
792.00 0.266884
794.00 0.265030
796.00 0.264182
798.00 0.262904
800.00 0.261769