File: data/14_05/File_250514_173505.txt
'File_250514_173505 - Storage 173505'
'Wavelength nm.' 'Abs.'
350.00 0.188979
352.00 0.188070
354.00 0.187243
356.00 0.186482
358.00 0.185408
360.00 0.184300
362.00 0.183282
364.00 0.182472
366.00 0.181715
368.00 0.180734
370.00 0.179927
372.00 0.179065
374.00 0.177925
376.00 0.177318
378.00 0.176585
380.00 0.175850
382.00 0.174969
384.00 0.174383
386.00 0.173502
388.00 0.172778
390.00 0.172099
392.00 0.171164
394.00 0.170344
396.00 0.169728
398.00 0.168930
400.00 0.168283
402.00 0.167666
404.00 0.166776
406.00 0.166133
408.00 0.165725
410.00 0.165488
412.00 0.164993
414.00 0.164779
416.00 0.164486
418.00 0.164336
420.00 0.164225
422.00 0.163988
424.00 0.163814
426.00 0.163950
428.00 0.163975
430.00 0.164046
432.00 0.164341
434.00 0.164346
436.00 0.164698
438.00 0.164832
440.00 0.165244
442.00 0.165669
444.00 0.165725
446.00 0.166277
448.00 0.166734
450.00 0.167021
452.00 0.167547
454.00 0.168029
456.00 0.168453
458.00 0.169067
460.00 0.169331
462.00 0.170004
464.00 0.170601
466.00 0.171097
468.00 0.171477
470.00 0.172015
472.00 0.172369
474.00 0.172888
476.00 0.173263
478.00 0.173637
480.00 0.174230
482.00 0.174523
484.00 0.175065
486.00 0.175468
488.00 0.175634
490.00 0.175795
492.00 0.176055
494.00 0.176202
496.00 0.176336
498.00 0.176513
500.00 0.176530
502.00 0.176616
504.00 0.176422
506.00 0.176530
508.00 0.176575
510.00 0.176599
512.00 0.176392
514.00 0.176152
516.00 0.176189
518.00 0.175931
520.00 0.175736
522.00 0.175381
524.00 0.175255
526.00 0.174613
528.00 0.174429
530.00 0.173941
532.00 0.173260
534.00 0.172674
536.00 0.172225
538.00 0.171525
540.00 0.171012
542.00 0.170211
544.00 0.169578
546.00 0.168963
548.00 0.168263
550.00 0.167451
552.00 0.166713
554.00 0.166126
556.00 0.165201
558.00 0.164302
560.00 0.163533
562.00 0.162653
564.00 0.161585
566.00 0.160527
568.00 0.159606
570.00 0.158789
572.00 0.157695
574.00 0.156900
576.00 0.155970
578.00 0.155005
580.00 0.154247
582.00 0.153268
584.00 0.152334
586.00 0.151238
588.00 0.150103
590.00 0.149026
592.00 0.148050
594.00 0.147020
596.00 0.146069
598.00 0.145025
600.00 0.143973
602.00 0.142935
604.00 0.141724
606.00 0.140770
608.00 0.139614
610.00 0.138429
612.00 0.137344
614.00 0.136013
616.00 0.134704
618.00 0.133751
620.00 0.132505
622.00 0.131525
624.00 0.130396
626.00 0.129537
628.00 0.128377
630.00 0.127198
632.00 0.126164
634.00 0.124950
636.00 0.124058
638.00 0.122930
640.00 0.121807
642.00 0.120666
644.00 0.119606
646.00 0.118796
648.00 0.117835
650.00 0.116864
652.00 0.115822
654.00 0.114936
656.00 0.113994
658.00 0.112807
660.00 0.111979
662.00 0.111079
664.00 0.110538
666.00 0.109716
668.00 0.108671
670.00 0.108057
672.00 0.107093
674.00 0.106372
676.00 0.105586
678.00 0.104748
680.00 0.103903
682.00 0.103066
684.00 0.102350
686.00 0.101720
688.00 0.100880
690.00 0.100167
692.00 0.099372
694.00 0.098827
696.00 0.098246
698.00 0.097514
700.00 0.097070
702.00 0.096407
704.00 0.095972
706.00 0.095615
708.00 0.095117
710.00 0.094631
712.00 0.094354
714.00 0.093907
716.00 0.093823
718.00 0.093727
720.00 0.093510
722.00 0.093154
724.00 0.093187
726.00 0.093151
728.00 0.093317
730.00 0.093705
732.00 0.094066
734.00 0.094646
736.00 0.094850
738.00 0.094958
740.00 0.094757
742.00 0.094381
744.00 0.093848
746.00 0.093538
748.00 0.093106
750.00 0.092744
752.00 0.092301
754.00 0.091930
756.00 0.091519
758.00 0.091103
760.00 0.090684
762.00 0.090359
764.00 0.089745
766.00 0.089227
768.00 0.088962
770.00 0.088281
772.00 0.087721
774.00 0.087251
776.00 0.086840
778.00 0.086657
780.00 0.086458
782.00 0.086038
784.00 0.085667
786.00 0.085131
788.00 0.084316
790.00 0.083794
792.00 0.083258
794.00 0.082819
796.00 0.082125
798.00 0.081793
800.00 0.081537