File: data/14_05/File_250514_172903.txt
'File_250514_172903 - Storage 172903'
'Wavelength nm.' 'Abs.'
350.00 0.106791
352.00 0.106130
354.00 0.105330
356.00 0.104681
358.00 0.103530
360.00 0.102883
362.00 0.102168
364.00 0.101399
366.00 0.100861
368.00 0.100103
370.00 0.099292
372.00 0.098407
374.00 0.097237
376.00 0.096826
378.00 0.095953
380.00 0.095165
382.00 0.094297
384.00 0.093672
386.00 0.093030
388.00 0.092254
390.00 0.091560
392.00 0.090816
394.00 0.090215
396.00 0.089502
398.00 0.088777
400.00 0.088129
402.00 0.087591
404.00 0.086832
406.00 0.086108
408.00 0.085481
410.00 0.085041
412.00 0.084427
414.00 0.083960
416.00 0.083260
418.00 0.082712
420.00 0.082325
422.00 0.081630
424.00 0.081058
426.00 0.080448
428.00 0.080026
430.00 0.079626
432.00 0.079249
434.00 0.078748
436.00 0.078279
438.00 0.077805
440.00 0.077410
442.00 0.077059
444.00 0.076631
446.00 0.076337
448.00 0.076148
450.00 0.075816
452.00 0.075640
454.00 0.075329
456.00 0.074942
458.00 0.074914
460.00 0.074532
462.00 0.074477
464.00 0.074327
466.00 0.074138
468.00 0.073970
470.00 0.073887
472.00 0.073722
474.00 0.073720
476.00 0.073548
478.00 0.073322
480.00 0.073316
482.00 0.073173
484.00 0.073158
486.00 0.073230
488.00 0.072946
490.00 0.072774
492.00 0.072497
494.00 0.072454
496.00 0.072308
498.00 0.072284
500.00 0.071999
502.00 0.071932
504.00 0.071713
506.00 0.071585
508.00 0.071519
510.00 0.071471
512.00 0.071291
514.00 0.071034
516.00 0.071046
518.00 0.070954
520.00 0.070754
522.00 0.070604
524.00 0.070614
526.00 0.070315
528.00 0.070299
530.00 0.070154
532.00 0.070099
534.00 0.070076
536.00 0.070018
538.00 0.069833
540.00 0.069868
542.00 0.069639
544.00 0.069491
546.00 0.069374
548.00 0.069273
550.00 0.069096
552.00 0.069095
554.00 0.068888
556.00 0.068661
558.00 0.068590
560.00 0.068375
562.00 0.068279
564.00 0.067935
566.00 0.067777
568.00 0.067611
570.00 0.067509
572.00 0.067315
574.00 0.067160
576.00 0.067007
578.00 0.066821
580.00 0.066816
582.00 0.066709
584.00 0.066681
586.00 0.066427
588.00 0.066247
590.00 0.066149
592.00 0.065969
594.00 0.065682
596.00 0.065740
598.00 0.065593
600.00 0.065406
602.00 0.065272
604.00 0.064997
606.00 0.064935
608.00 0.064619
610.00 0.064423
612.00 0.064130
614.00 0.063880
616.00 0.063706
618.00 0.063454
620.00 0.063221
622.00 0.062951
624.00 0.062706
626.00 0.062693
628.00 0.062469
630.00 0.062239
632.00 0.062020
634.00 0.061880
636.00 0.061653
638.00 0.061446
640.00 0.061280
642.00 0.060983
644.00 0.060906
646.00 0.060822
648.00 0.060638
650.00 0.060503
652.00 0.060230
654.00 0.060278
656.00 0.059997
658.00 0.059772
660.00 0.059609
662.00 0.059529
664.00 0.059520
666.00 0.059532
668.00 0.059279
670.00 0.059290
672.00 0.059045
674.00 0.058986
676.00 0.058863
678.00 0.058723
680.00 0.058555
682.00 0.058455
684.00 0.058640
686.00 0.058304
688.00 0.058029
690.00 0.058050
692.00 0.058057
694.00 0.058005
696.00 0.057948
698.00 0.057856
700.00 0.058022
702.00 0.057863
704.00 0.057806
706.00 0.058146
708.00 0.058026
710.00 0.058122
712.00 0.058276
714.00 0.058512
716.00 0.058697
718.00 0.059084
720.00 0.059419
722.00 0.059631
724.00 0.059928
726.00 0.060277
728.00 0.061065
730.00 0.061646
732.00 0.062483
734.00 0.063507
736.00 0.064056
738.00 0.064569
740.00 0.064579
742.00 0.064726
744.00 0.064723
746.00 0.064593
748.00 0.064707
750.00 0.064498
752.00 0.064389
754.00 0.064243
756.00 0.064190
758.00 0.064305
760.00 0.064034
762.00 0.063918
764.00 0.063658
766.00 0.063581
768.00 0.063346
770.00 0.062986
772.00 0.063010
774.00 0.062592
776.00 0.062372
778.00 0.062407
780.00 0.062341
782.00 0.062317
784.00 0.062022
786.00 0.061976
788.00 0.061505
790.00 0.061211
792.00 0.060701
794.00 0.060666
796.00 0.060372
798.00 0.060115
800.00 0.059585