File: data/14_05/File_250514_175838.txt
'File_250514_175838 - Storage 175838'
'Wavelength nm.' 'Abs.'
350.00 0.181162
352.00 0.179455
354.00 0.177149
356.00 0.175057
358.00 0.172892
360.00 0.170617
362.00 0.168654
364.00 0.166887
366.00 0.165185
368.00 0.163309
370.00 0.161520
372.00 0.159922
374.00 0.157824
376.00 0.156287
378.00 0.154756
380.00 0.153067
382.00 0.151503
384.00 0.150309
386.00 0.148895
388.00 0.147556
390.00 0.146276
392.00 0.145008
394.00 0.143971
396.00 0.142846
398.00 0.142015
400.00 0.141033
402.00 0.140346
404.00 0.139214
406.00 0.138447
408.00 0.137651
410.00 0.137140
412.00 0.136611
414.00 0.136375
416.00 0.135684
418.00 0.135181
420.00 0.134627
422.00 0.133891
424.00 0.133456
426.00 0.132992
428.00 0.132341
430.00 0.131913
432.00 0.131460
434.00 0.130970
436.00 0.130466
438.00 0.129978
440.00 0.129569
442.00 0.128989
444.00 0.128570
446.00 0.128322
448.00 0.127959
450.00 0.127479
452.00 0.127139
454.00 0.126758
456.00 0.126369
458.00 0.126013
460.00 0.125479
462.00 0.125288
464.00 0.124813
466.00 0.124412
468.00 0.123955
470.00 0.123299
472.00 0.122810
474.00 0.122350
476.00 0.121743
478.00 0.121292
480.00 0.121126
482.00 0.120776
484.00 0.120577
486.00 0.120110
488.00 0.119397
490.00 0.118787
492.00 0.118042
494.00 0.117586
496.00 0.116785
498.00 0.116343
500.00 0.115664
502.00 0.115075
504.00 0.114424
506.00 0.113883
508.00 0.113317
510.00 0.112720
512.00 0.112162
514.00 0.111471
516.00 0.110872
518.00 0.110350
520.00 0.109677
522.00 0.109056
524.00 0.108440
526.00 0.107635
528.00 0.107190
530.00 0.106489
532.00 0.105779
534.00 0.105062
536.00 0.104535
538.00 0.103757
540.00 0.103267
542.00 0.102314
544.00 0.101848
546.00 0.101252
548.00 0.100634
550.00 0.099867
552.00 0.099109
554.00 0.098697
556.00 0.097779
558.00 0.097311
560.00 0.096665
562.00 0.095873
564.00 0.095053
566.00 0.094187
568.00 0.093323
570.00 0.092641
572.00 0.091811
574.00 0.091215
576.00 0.090576
578.00 0.090033
580.00 0.089753
582.00 0.089460
584.00 0.089032
586.00 0.088292
588.00 0.087577
590.00 0.086740
592.00 0.086000
594.00 0.085315
596.00 0.084652
598.00 0.084036
600.00 0.083399
602.00 0.082686
604.00 0.082182
606.00 0.081479
608.00 0.080889
610.00 0.080177
612.00 0.079683
614.00 0.079072
616.00 0.078401
618.00 0.077986
620.00 0.077392
622.00 0.076824
624.00 0.076282
626.00 0.076024
628.00 0.075519
630.00 0.074871
632.00 0.074450
634.00 0.073970
636.00 0.073653
638.00 0.073173
640.00 0.072744
642.00 0.072229
644.00 0.071901
646.00 0.071623
648.00 0.071245
650.00 0.070906
652.00 0.070585
654.00 0.070410
656.00 0.070132
658.00 0.069594
660.00 0.069151
662.00 0.068997
664.00 0.068858
666.00 0.068856
668.00 0.068824
670.00 0.068724
672.00 0.068482
674.00 0.068190
676.00 0.068073
678.00 0.067937
680.00 0.067715
682.00 0.067444
684.00 0.067597
686.00 0.067112
688.00 0.067073
690.00 0.066856
692.00 0.066737
694.00 0.066510
696.00 0.066517
698.00 0.066521
700.00 0.066599
702.00 0.066565
704.00 0.066689
706.00 0.066754
708.00 0.066638
710.00 0.066923
712.00 0.066914
714.00 0.067251
716.00 0.067571
718.00 0.067687
720.00 0.068021
722.00 0.068076
724.00 0.068414
726.00 0.068926
728.00 0.069699
730.00 0.070198
732.00 0.071176
734.00 0.071917
736.00 0.072612
738.00 0.073228
740.00 0.073487
742.00 0.073445
744.00 0.073456
746.00 0.073609
748.00 0.073813
750.00 0.073867
752.00 0.073920
754.00 0.073969
756.00 0.073873
758.00 0.074261
760.00 0.074094
762.00 0.074190
764.00 0.074040
766.00 0.074133
768.00 0.073766
770.00 0.073012
772.00 0.072535
774.00 0.072517
776.00 0.072342
778.00 0.072818
780.00 0.073526
782.00 0.073808
784.00 0.073466
786.00 0.073494
788.00 0.072849
790.00 0.072568
792.00 0.072123
794.00 0.071652
796.00 0.071524
798.00 0.071278
800.00 0.070960