File: data/14_05/G.txt
'File_250514_175048 - Storage 175048'
'Wavelength nm.' 'Abs.'
350.00 0.269753
352.00 0.269248
354.00 0.268248
356.00 0.267573
358.00 0.266223
360.00 0.265552
362.00 0.264428
364.00 0.263560
366.00 0.262705
368.00 0.261812
370.00 0.260984
372.00 0.260229
374.00 0.258946
376.00 0.258463
378.00 0.257693
380.00 0.257010
382.00 0.256150
384.00 0.255733
386.00 0.255239
388.00 0.254721
390.00 0.254349
392.00 0.254014
394.00 0.253916
396.00 0.253710
398.00 0.253751
400.00 0.253865
402.00 0.254237
404.00 0.254266
406.00 0.254482
408.00 0.255109
410.00 0.255713
412.00 0.256327
414.00 0.257120
416.00 0.257608
418.00 0.258415
420.00 0.259030
422.00 0.259379
424.00 0.260089
426.00 0.260858
428.00 0.261611
430.00 0.262156
432.00 0.262871
434.00 0.263431
436.00 0.264040
438.00 0.264580
440.00 0.265225
442.00 0.265757
444.00 0.266140
446.00 0.266542
448.00 0.266975
450.00 0.267375
452.00 0.267731
454.00 0.267921
456.00 0.268229
458.00 0.268415
460.00 0.268343
462.00 0.268594
464.00 0.268705
466.00 0.268805
468.00 0.268546
470.00 0.268423
472.00 0.268091
474.00 0.267735
476.00 0.267309
478.00 0.266735
480.00 0.266152
482.00 0.265541
484.00 0.264843
486.00 0.263954
488.00 0.262971
490.00 0.261949
492.00 0.260762
494.00 0.259645
496.00 0.258415
498.00 0.257272
500.00 0.255854
502.00 0.254372
504.00 0.253000
506.00 0.251581
508.00 0.250119
510.00 0.248667
512.00 0.246827
514.00 0.245095
516.00 0.243529
518.00 0.241793
520.00 0.239938
522.00 0.238039
524.00 0.236162
526.00 0.234224
528.00 0.232518
530.00 0.230324
532.00 0.228016
534.00 0.225818
536.00 0.223863
538.00 0.221396
540.00 0.219276
542.00 0.216992
544.00 0.214912
546.00 0.212872
548.00 0.210731
550.00 0.208538
552.00 0.206461
554.00 0.204465
556.00 0.202196
558.00 0.200115
560.00 0.197961
562.00 0.195829
564.00 0.193670
566.00 0.191499
568.00 0.189463
570.00 0.187506
572.00 0.185406
574.00 0.183564
576.00 0.181517
578.00 0.179459
580.00 0.177636
582.00 0.175603
584.00 0.173601
586.00 0.171637
588.00 0.169685
590.00 0.167852
592.00 0.166050
594.00 0.164176
596.00 0.162450
598.00 0.160654
600.00 0.158815
602.00 0.157109
604.00 0.155255
606.00 0.153462
608.00 0.151625
610.00 0.149714
612.00 0.147963
614.00 0.146127
616.00 0.144363
618.00 0.142692
620.00 0.140970
622.00 0.139362
624.00 0.137657
626.00 0.136405
628.00 0.134877
630.00 0.133352
632.00 0.131683
634.00 0.130258
636.00 0.128875
638.00 0.127368
640.00 0.126026
642.00 0.124515
644.00 0.123180
646.00 0.122007
648.00 0.120817
650.00 0.119551
652.00 0.118340
654.00 0.117155
656.00 0.116064
658.00 0.114618
660.00 0.113516
662.00 0.112545
664.00 0.111716
666.00 0.110728
668.00 0.109616
670.00 0.108896
672.00 0.107785
674.00 0.106766
676.00 0.105961
678.00 0.105123
680.00 0.104062
682.00 0.103129
684.00 0.102574
686.00 0.101544
688.00 0.100827
690.00 0.099800
692.00 0.099160
694.00 0.098446
696.00 0.097770
698.00 0.097001
700.00 0.096650
702.00 0.095988
704.00 0.095377
706.00 0.094882
708.00 0.094316
710.00 0.093910
712.00 0.093589
714.00 0.093021
716.00 0.092974
718.00 0.092816
720.00 0.092515
722.00 0.092260
724.00 0.092281
726.00 0.092070
728.00 0.092198
730.00 0.092432
732.00 0.092953
734.00 0.093295
736.00 0.093459
738.00 0.093551
740.00 0.093306
742.00 0.093170
744.00 0.092420
746.00 0.092030
748.00 0.091552
750.00 0.091322
752.00 0.090681
754.00 0.090212
756.00 0.089749
758.00 0.089366
760.00 0.089000
762.00 0.088559
764.00 0.088048
766.00 0.087737
768.00 0.087232
770.00 0.086543
772.00 0.086060
774.00 0.085678
776.00 0.085107
778.00 0.084726
780.00 0.084454
782.00 0.084011
784.00 0.083402
786.00 0.083111
788.00 0.082442
790.00 0.081847
792.00 0.081182
794.00 0.080725
796.00 0.080319
798.00 0.079626
800.00 0.079037