File: data/14_05/Y2.txt
'File_250514_184140 - Storage 184140'
'Wavelength nm.' 'Abs.'
350.00 0.585586
352.00 0.584880
354.00 0.583745
356.00 0.582592
358.00 0.581527
360.00 0.580696
362.00 0.580158
364.00 0.578886
366.00 0.577827
368.00 0.576729
370.00 0.575811
372.00 0.574827
374.00 0.573283
376.00 0.572584
378.00 0.571899
380.00 0.571069
382.00 0.570229
384.00 0.569727
386.00 0.568996
388.00 0.568189
390.00 0.567612
392.00 0.567038
394.00 0.566275
396.00 0.565866
398.00 0.565197
400.00 0.564764
402.00 0.564437
404.00 0.563444
406.00 0.563074
408.00 0.562818
410.00 0.562970
412.00 0.563069
414.00 0.563294
416.00 0.563214
418.00 0.563386
420.00 0.563160
422.00 0.562389
424.00 0.562606
426.00 0.562979
428.00 0.563228
430.00 0.563646
432.00 0.564308
434.00 0.564824
436.00 0.565382
438.00 0.566002
440.00 0.566769
442.00 0.567360
444.00 0.568187
446.00 0.568999
448.00 0.569790
450.00 0.570516
452.00 0.571222
454.00 0.571969
456.00 0.572822
458.00 0.573814
460.00 0.574391
462.00 0.575459
464.00 0.576169
466.00 0.577286
468.00 0.577831
470.00 0.578536
472.00 0.579221
474.00 0.579725
476.00 0.580285
478.00 0.580689
480.00 0.581188
482.00 0.581663
484.00 0.582032
486.00 0.582251
488.00 0.582361
490.00 0.582233
492.00 0.582248
494.00 0.582197
496.00 0.582005
498.00 0.581906
500.00 0.581545
502.00 0.581195
504.00 0.580651
506.00 0.580271
508.00 0.579745
510.00 0.579287
512.00 0.578518
514.00 0.577599
516.00 0.576779
518.00 0.575846
520.00 0.574893
522.00 0.573637
524.00 0.572533
526.00 0.571267
528.00 0.569950
530.00 0.567931
532.00 0.563925
534.00 0.561354
536.00 0.558846
538.00 0.556132
540.00 0.553647
542.00 0.551025
544.00 0.548544
546.00 0.546191
548.00 0.543684
550.00 0.540913
552.00 0.538506
554.00 0.535969
556.00 0.533126
558.00 0.530401
560.00 0.527483
562.00 0.524656
564.00 0.521608
566.00 0.518578
568.00 0.515434
570.00 0.512515
572.00 0.509484
574.00 0.506778
576.00 0.503615
578.00 0.500523
580.00 0.497507
582.00 0.494430
584.00 0.491090
586.00 0.487439
588.00 0.483728
590.00 0.480286
592.00 0.477069
594.00 0.473493
596.00 0.469968
598.00 0.466388
600.00 0.462878
602.00 0.459254
604.00 0.455371
606.00 0.451682
608.00 0.447786
610.00 0.443769
612.00 0.439893
614.00 0.435778
616.00 0.431869
618.00 0.428018
620.00 0.424045
622.00 0.420286
624.00 0.416222
626.00 0.413049
628.00 0.409116
630.00 0.405090
632.00 0.401031
634.00 0.396900
636.00 0.392947
638.00 0.388825
640.00 0.384934
642.00 0.380910
644.00 0.376974
646.00 0.373164
648.00 0.369314
650.00 0.365389
652.00 0.361478
654.00 0.357782
656.00 0.353849
658.00 0.349409
660.00 0.345708
662.00 0.342285
664.00 0.338922
666.00 0.335429
668.00 0.331588
670.00 0.328538
672.00 0.324463
674.00 0.321007
676.00 0.317669
678.00 0.314062
680.00 0.310330
682.00 0.306717
684.00 0.303831
686.00 0.300074
688.00 0.296694
690.00 0.293162
692.00 0.290061
694.00 0.287006
696.00 0.283840
698.00 0.280659
700.00 0.278010
702.00 0.274904
704.00 0.271839
706.00 0.269072
708.00 0.266211
710.00 0.263554
712.00 0.260845
714.00 0.258261
716.00 0.255986
718.00 0.253672
720.00 0.251562
722.00 0.248905
724.00 0.246845
726.00 0.244596
728.00 0.242671
730.00 0.241151
732.00 0.239497
734.00 0.238037
736.00 0.236359
738.00 0.234811
740.00 0.232539
742.00 0.230525
744.00 0.228035
746.00 0.226259
748.00 0.223881
750.00 0.221699
752.00 0.219606
754.00 0.217590
756.00 0.215533
758.00 0.213574
760.00 0.211953
762.00 0.209812
764.00 0.207811
766.00 0.205971
768.00 0.203773
770.00 0.201654
772.00 0.199885
774.00 0.198182
776.00 0.196372
778.00 0.194904
780.00 0.193350
782.00 0.191615
784.00 0.189864
786.00 0.188447
788.00 0.186331
790.00 0.184670
792.00 0.182989
794.00 0.181248
796.00 0.179667
798.00 0.178157
800.00 0.176136